#EXPORTTYPE:DATA ALL
#FILE:RE-478.ngb-ss5
#FORMAT:NETZSCH5
#FTYPE:ANSI
#IDENTITY:Engemann
#DECIMAL:POINT
#SEPARATOR:SEMICOLON
#MTYPE:DTA
#INSTRUMENT:NETZSCH STA 449F5
#PROJECT:
#DATE/TIME:15.03.2025 08:31
#CORR. FILE:
#TEMPCAL:TCALZERO.TCX
#SENSITIVITY:SENSZERO.EXX
#LABORATORY:Thermische Analyse
#OPERATOR:Kunert
#REMARK:
#SAMPLE:RE-478
#SAMPLE MASS /mg:15,22
#MATERIAL:
#REFERENCE:
#REFERENCE MASS /mg:0
#TYPE OF CRUCIBLE:Al2O3 0.3 ml DTA/TG, open
#SAMPLE CRUCIBLE MASS /mg:1450,98
#REFERENCE CRUCIBLE MASS /mg:0
#PURGE 1 MFC:AIR(80/20),250,3 ml/min
#PURGE 2 MFC:ARGON,240,3 ml/min
#PROTECTIVE MFC:NITROGEN,250,0 ml/min
#DTA RANGE /µV:5000
#TG RANGE /mg:35000
#TAU-R:---
#CORR. CODE:000
#EXO:+1
#RANGE:40°C/5.0(K/min)/600°C
#SEGMENT:S1/1
#SEG. 1:40°C/5.0(K/min)/600°C

##Temp./°C;Time/min;DTA/(uV/mg);Mass(subtr.)/%;DTG(subtr.)/(%/min);Sensit./(uV/mW)
 39.08600;  0.00000;7.178250e-02;100.00000;      0.26625;1.00000
 40.08600;  0.65253;7.245859e-02; 99.96720; 2.564369e-03;1.00000
 41.08600;  1.24326;8.049616e-02; 99.93067;-1.897784e-02;1.00000
 42.08600;  1.73832;9.084001e-02; 99.99755; 3.561474e-02;1.00000
 43.08600;  2.16135;     0.10332; 99.99356; 3.036265e-04;1.00000
 44.08600;  2.53107;     0.11586;100.00547; 5.287281e-02;1.00000
 45.08600;  2.86496;     0.12719;100.01078;-1.923298e-02;1.00000
 46.08600;  3.17503;     0.13775; 99.99847; 2.858230e-02;1.00000
 47.08600;  3.46337;     0.14770;100.01430; 2.246048e-02;1.00000
 48.08600;  3.73513;     0.15786; 99.99934; 6.225559e-02;1.00000
 49.08600;  3.99430;     0.16734;100.05617; 7.866700e-03;1.00000
 50.08600;  4.24209;     0.17770;100.02095;-7.454563e-02;1.00000
 51.08600;  4.47993;     0.18647; 99.99462;-2.915388e-02;1.00000
 52.08600;  4.70934;     0.19470;100.00750; 4.836603e-02;1.00000
 53.08600;  4.93039;     0.20340;100.01534; 6.264908e-02;1.00000
 54.08600;  5.14537;     0.21257;100.04570; 3.836018e-02;1.00000
 55.08600;  5.35431;     0.22049;100.04299;-1.065008e-02;1.00000
 56.08600;  5.55679;     0.22924;100.03259;-3.103577e-02;1.00000
 57.08600;  5.75444;     0.23677;100.03537;-1.374179e-02;1.00000
 58.08600;  5.94874;     0.24558;100.00390; 5.604412e-02;1.00000
 59.08600;  6.13855;     0.25276;100.06006; 7.913548e-02;1.00000
 60.08600;  6.32448;     0.26126;100.07669; 5.904085e-03;1.00000
 61.08600;  6.50698;     0.26953;100.05212;-3.945264e-02;1.00000
 62.08600;  6.68607;     0.27550;100.02446;-2.558729e-03;1.00000
 63.08600;  6.86261;     0.28424;100.06071; 3.007126e-02;1.00000
 64.08600;  7.03650;     0.29089;100.05960; 2.204006e-02;1.00000
 65.08600;  7.20892;     0.29937;100.04699; 2.180772e-02;1.00000
 66.08600;  7.37957;     0.30655;100.06822; 3.152977e-02;1.00000
 67.08600;  7.54803;     0.31430;100.06368; 2.200958e-02;1.00000
 68.08600;  7.71491;     0.31988;100.08585;-1.639813e-02;1.00000
 69.08600;  7.88047;     0.32688;100.07175;-5.035420e-02;1.00000
 70.08600;  8.04511;     0.33330;100.03296;-3.030307e-02;1.00000
 71.08600;  8.20830;     0.33937;100.05189; 1.984813e-02;1.00000
 72.08600;  8.37059;     0.34684;100.06162; 4.902309e-02;1.00000
 73.08600;  8.53180;     0.35317;100.06233; 4.574193e-02;1.00000
 74.08600;  8.69234;     0.36008;100.09264; 1.358742e-02;1.00000
 75.08600;  8.85179;     0.36631;100.07518;-1.986925e-02;1.00000
 76.08600;  9.01059;     0.37185;100.06125;-1.762850e-02;1.00000
 77.08600;  9.16912;     0.37772;100.06184; 1.134716e-02;1.00000
 78.08600;  9.32728;     0.38490;100.07463; 2.809453e-02;1.00000
 79.08600;  9.48480;     0.39066;100.07783; 1.089782e-02;1.00000
 80.08600;  9.64168;     0.39672;100.08638;-3.546792e-02;1.00000
 81.08600;  9.79764;     0.40181;100.08177;-6.955961e-02;1.00000
 82.08600;  9.95330;     0.40788;100.02903;-4.000814e-02;1.00000
 83.08600; 10.10934;     0.41409;100.03317; 2.853245e-02;1.00000
 84.08600; 10.26493;     0.41963;100.08236; 6.021178e-02;1.00000
 85.08600; 10.42051;     0.42369;100.07073; 4.911507e-02;1.00000
 86.08600; 10.57590;     0.42901;100.07474; 3.485017e-02;1.00000
 87.08600; 10.73113;     0.43439;100.08707; 1.605421e-02;1.00000
 88.08600; 10.88633;     0.44059;100.09830;-7.958984e-03;1.00000
 89.08600; 11.04129;     0.44578;100.06364;-7.776416e-03;1.00000
 90.08600; 11.19664;     0.45085;100.08063; 1.794176e-02;1.00000
 91.08600; 11.35206;     0.45555;100.08562; 4.289248e-02;1.00000
 92.08600; 11.50768;     0.46040;100.08653; 4.941711e-02;1.00000
 93.08600; 11.66347;     0.46531;100.11182; 1.858278e-02;1.00000
 94.08600; 11.81995;     0.46968;100.12191;-3.728875e-02;1.00000
 95.08600; 11.97650;     0.47454;100.07481;-5.608643e-02;1.00000
 96.08600; 12.13330;     0.47982;100.07109;-2.835794e-02;1.00000
 97.08600; 12.29086;     0.48297;100.08635;-1.572972e-02;1.00000
 98.08600; 12.44903;     0.48784;100.08761;-4.123111e-02;1.00000
 99.08600; 12.60799;     0.49193;100.07455;-4.872759e-02;1.00000
100.08600; 12.76810;     0.49694;100.03121; 1.095693e-02;1.00000
101.08600; 12.92840;     0.50043;100.06118; 8.917208e-02;1.00000
102.08600; 13.08959;     0.50440;100.10348;      0.10165;1.00000
103.08600; 13.25168;     0.50843;100.11241; 4.710098e-02;1.00000
104.08600; 13.41489;     0.51183;100.11489;-2.189747e-02;1.00000
105.08600; 13.57901;     0.51718;100.10166;-5.766185e-02;1.00000
106.08600; 13.74387;     0.51999;100.07219;-2.089944e-02;1.00000
107.08600; 13.90948;     0.52376;100.06646; 4.885577e-02;1.00000
108.08600; 14.07623;     0.52833;100.12655; 4.395322e-02;1.00000
109.08600; 14.24443;     0.53248;100.12477;-4.733855e-02;1.00000
110.08600; 14.41328;     0.53616;100.08819;     -0.10267;1.00000
111.08600; 14.58324;     0.54043;100.04778;-4.875792e-02;1.00000
112.08600; 14.75460;     0.54277;100.05975; 4.849342e-02;1.00000
113.08600; 14.92698;     0.54744;100.08716; 9.840136e-02;1.00000
114.08600; 15.09997;     0.55147;100.11877; 8.274070e-02;1.00000
115.08600; 15.27446;     0.55422;100.11200; 4.774317e-02;1.00000
116.08600; 15.45013;     0.55940;100.12529; 2.653825e-02;1.00000
117.08600; 15.62621;     0.56217;100.12414; 1.455926e-03;1.00000
118.08600; 15.80319;     0.56600;100.13273;-3.149351e-02;1.00000
119.08600; 15.98099;     0.56952;100.10595;-4.427689e-02;1.00000
120.08600; 16.15996;     0.57431;100.10424;-4.196066e-02;1.00000
121.08600; 16.34045;     0.57795;100.10961;-4.693113e-02;1.00000
122.08600; 16.52250;     0.58162;100.07075;-1.439924e-02;1.00000
123.08600; 16.70498;     0.58581;100.08319; 6.390543e-02;1.00000
124.08600; 16.88863;     0.58895;100.11178; 9.976386e-02;1.00000
125.08600; 17.07341;     0.59263;100.14817; 5.649084e-02;1.00000
126.08600; 17.25919;     0.59658;100.12498;-6.334307e-03;1.00000
127.08600; 17.44561;     0.60098;100.14270;-4.256523e-02;1.00000
128.08600; 17.63295;     0.60437;100.10084;-4.262253e-02;1.00000
129.08600; 17.82185;     0.60885;100.11832;-2.645473e-02;1.00000
130.08600; 18.01201;     0.61253;100.10388; 5.818359e-03;1.00000
131.08600; 18.20183;     0.61792;100.09350; 6.705070e-02;1.00000
132.08600; 18.39173;     0.62159;100.15102; 6.573700e-02;1.00000
133.08600; 18.58419;     0.62627;100.14419;-5.298893e-03;1.00000
134.08600; 18.77743;     0.62946;100.12273;-4.063266e-02;1.00000
135.08600; 18.97135;     0.63326;100.12755;-3.672692e-02;1.00000
136.08600; 19.16541;     0.63851;100.11353;-2.287301e-02;1.00000
137.08600; 19.36057;     0.64304;100.11200; 1.971895e-03;1.00000
138.08600; 19.55689;     0.64733;100.11807; 1.957659e-02;1.00000
139.08600; 19.75393;     0.65204;100.12215; 1.610828e-02;1.00000
140.08600; 19.95164;     0.65624;100.12494;-1.399211e-02;1.00000
141.08600; 20.14995;     0.66194;100.13444;-6.022598e-02;1.00000
142.08600; 20.34921;     0.66593;100.06730; 6.750374e-03;1.00000
143.08600; 20.54903;     0.67102;100.09805;      0.14153;1.00000
144.08600; 20.74914;     0.67577;100.19732; 7.915158e-02;1.00000
145.08600; 20.94944;     0.68023;100.15002;-5.435667e-02;1.00000
146.08600; 21.15035;     0.68585;100.11908;-5.448994e-02;1.00000
147.08600; 21.35161;     0.69079;100.13889; 3.992512e-03;1.00000
148.08600; 21.55422;     0.69578;100.11672; 6.948073e-02;1.00000
149.08600; 21.75733;     0.70117;100.17808; 6.146943e-02;1.00000
150.08600; 21.96011;     0.70545;100.16598;-1.524495e-02;1.00000
151.08600; 22.16423;     0.71138;100.14355;-4.011154e-02;1.00000
152.08600; 22.36897;     0.71532;100.15127;-2.614659e-02;1.00000
153.08600; 22.57274;     0.72222;100.14256;-1.582484e-02;1.00000
154.08600; 22.77666;     0.72727;100.13276;-1.258210e-02;1.00000
155.08600; 22.98173;     0.73270;100.14093;-2.444030e-02;1.00000
156.08600; 23.18656;     0.73812;100.12808;-3.988096e-02;1.00000
157.08600; 23.39109;     0.74409;100.12366;-9.080870e-03;1.00000
158.08600; 23.59658;     0.74946;100.10388; 6.833884e-02;1.00000
159.08600; 23.80250;     0.75596;100.15787; 7.061948e-02;1.00000
160.08600; 24.00851;     0.76236;100.15703;-8.341854e-04;1.00000
161.08600; 24.21516;     0.76844;100.13898;-1.249521e-02;1.00000
162.08600; 24.42164;     0.77403;100.14898; 1.161436e-02;1.00000
163.08600; 24.62790;     0.78079;100.14905; 1.574960e-02;1.00000
164.08600; 24.83448;     0.78595;100.16145; 5.165446e-03;1.00000
165.08600; 25.04123;     0.79272;100.15487;-1.332142e-02;1.00000
166.08600; 25.24754;     0.79960;100.14356;-1.795916e-03;1.00000
167.08600; 25.45358;     0.80611;100.15199; 1.462914e-02;1.00000
168.08600; 25.65972;     0.81207;100.16331;-6.374326e-03;1.00000
169.08600; 25.86556;     0.81896;100.14364;-2.228018e-02;1.00000
170.08600; 26.07129;     0.82476;100.14982;-1.860438e-02;1.00000
171.08600; 26.27727;     0.83220;100.14157;-3.960841e-03;1.00000
172.08600; 26.48363;     0.83856;100.13612; 3.322957e-02;1.00000
173.08600; 26.68960;     0.84521;100.15939; 3.711532e-02;1.00000
174.08600; 26.89487;     0.85145;100.17608;-6.812374e-03;1.00000
175.08600; 27.09971;     0.85858;100.12935; 8.585188e-03;1.00000
176.08600; 27.30462;     0.86600;100.17408; 2.190853e-02;1.00000
177.08600; 27.50918;     0.87200;100.17780;-3.973739e-02;1.00000
178.08600; 27.71347;     0.87886;100.11530; 7.513726e-03;1.00000
179.08600; 27.91786;     0.88610;100.16200;      0.10154;1.00000
180.08600; 28.12213;     0.89313;100.21409; 3.060985e-02;1.00000
181.08600; 28.32615;     0.89885;100.18124;-8.519236e-02;1.00000
182.08600; 28.53014;     0.90754;100.14640;-9.377608e-02;1.00000
183.08600; 28.73361;     0.91364;100.13706;-4.836492e-02;1.00000
184.08600; 28.93664;     0.92087;100.12744; 9.818716e-03;1.00000
185.08600; 29.14005;     0.92785;100.14090; 5.589445e-02;1.00000
186.08600; 29.34321;     0.93461;100.18475; 2.158449e-02;1.00000
187.08600; 29.54571;     0.94244;100.12290; 3.238965e-02;1.00000
188.08600; 29.74780;     0.94949;100.17980; 7.005708e-02;1.00000
189.08600; 29.94980;     0.95641;100.19504; 4.785393e-03;1.00000
190.08600; 30.15127;     0.96356;100.17481;-6.280234e-02;1.00000
191.08600; 30.35305;     0.97057;100.14791;-4.670062e-02;1.00000
192.08600; 30.55471;     0.97768;100.15049;-5.800327e-03;1.00000
193.08600; 30.75577;     0.98378;100.15500; 3.586819e-03;1.00000
194.08600; 30.95734;     0.99203;100.15808;-1.503357e-02;1.00000
195.08600; 31.15904;     0.99822;100.13581;-1.336864e-02;1.00000
196.08600; 31.36002;     1.00541;100.15358; 1.724792e-02;1.00000
197.08600; 31.56113;     1.01264;100.13899; 5.962932e-02;1.00000
198.08600; 31.76244;     1.01891;100.19172; 5.616391e-02;1.00000
199.08600; 31.96334;     1.02600;100.17887;-2.709723e-02;1.00000
200.08600; 32.16413;     1.03388;100.17126;-7.225139e-02;1.00000
201.08600; 32.36520;     1.04194;100.12288;-2.236015e-02;1.00000
202.08600; 32.56666;     1.04794;100.15123; 3.297288e-02;1.00000
203.08600; 32.76752;     1.05591;100.17941;-2.183749e-02;1.00000
204.08600; 32.96790;     1.06335;100.14444;-8.556052e-02;1.00000
205.08600; 33.16838;     1.06993;100.11906;-4.149271e-02;1.00000
206.08600; 33.36863;     1.07681;100.11590; 4.323081e-02;1.00000
207.08600; 33.56869;     1.08393;100.14040; 7.351758e-02;1.00000
208.08600; 33.76876;     1.09195;100.16734; 2.923549e-02;1.00000
209.08600; 33.96930;     1.09892;100.16569;-5.003171e-02;1.00000
210.08600; 34.17001;     1.10654;100.12683;-5.672153e-02;1.00000
211.08600; 34.37063;     1.11415;100.13799;-8.645005e-03;1.00000
212.08600; 34.57124;     1.12146;100.12172; 4.995509e-02;1.00000
213.08600; 34.77195;     1.12847;100.15109; 7.500697e-02;1.00000
214.08600; 34.97296;     1.13502;100.18005; 2.017211e-02;1.00000
215.08600; 35.17296;     1.14270;100.15674;-3.018597e-02;1.00000
216.08600; 35.37226;     1.15057;100.15250;-4.523279e-02;1.00000
217.08600; 35.57246;     1.15686;100.14923;-6.071893e-02;1.00000
218.08600; 35.77322;     1.16416;100.12001;-3.196248e-02;1.00000
219.08600; 35.97422;     1.17209;100.12139; 1.696670e-02;1.00000
220.08600; 36.17468;     1.17909;100.14879;-1.937664e-02;1.00000
221.08600; 36.37482;     1.18675;100.12358;-6.842850e-02;1.00000
222.08600; 36.57515;     1.19502;100.09487;-3.599498e-02;1.00000
223.08600; 36.77549;     1.20247;100.10631; 1.534424e-02;1.00000
224.08600; 36.97601;     1.20917;100.11564; 3.472115e-02;1.00000
225.08600; 37.17643;     1.21613;100.11779; 4.030356e-02;1.00000
226.08600; 37.37647;     1.22430;100.13227; 2.481932e-02;1.00000
227.08600; 37.57668;     1.23071;100.13432;-2.006276e-02;1.00000
228.08600; 37.77702;     1.23888;100.13025;-6.237486e-02;1.00000
229.08600; 37.97750;     1.24621;100.09698;-6.755995e-02;1.00000
230.08600; 38.17812;     1.25258;100.10213;-5.594487e-02;1.00000
231.08600; 38.37898;     1.25986;100.07746;-3.242033e-02;1.00000
232.08600; 38.57970;     1.26747;100.07752;-1.826518e-03;1.00000
233.08600; 38.77979;     1.27510;100.08639; 3.412886e-03;1.00000
234.08600; 38.98002;     1.28258;100.08357;-2.287168e-03;1.00000
235.08600; 39.18006;     1.28963;100.08585;-2.224962e-02;1.00000
236.08600; 39.38025;     1.29797;100.07523;-5.537133e-02;1.00000
237.08600; 39.58111;     1.30507;100.06000;-6.925247e-02;1.00000
238.08600; 39.78196;     1.31404;100.04947;-5.997773e-02;1.00000
239.08600; 39.98262;     1.32184;100.03617;-4.921118e-02;1.00000
240.08600; 40.18331;     1.32831;100.01886;-1.278361e-02;1.00000
241.08600; 40.38429;     1.33549;100.02893; 2.174693e-02;1.00000
242.08600; 40.58480;     1.34364;100.03726; 1.259103e-02;1.00000
243.08600; 40.78495;     1.35158;100.04850;-3.738809e-02;1.00000
244.08600; 40.98467;     1.35918;100.02311;-8.875480e-02;1.00000
245.08600; 41.18445;     1.36654; 99.99160;-7.907410e-02;1.00000
246.08600; 41.38501;     1.37483; 99.98616;-4.025104e-02;1.00000
247.08600; 41.58559;     1.38387; 99.99062;-4.110891e-02;1.00000
248.08600; 41.78568;     1.39013; 99.97065;-3.917986e-02;1.00000
249.08600; 41.98557;     1.39838; 99.95502;-5.044228e-04;1.00000
250.08600; 42.18571;     1.40509; 99.98846;-2.074212e-02;1.00000
251.08600; 42.38614;     1.41343; 99.96609;     -0.10103;1.00000
252.08600; 42.58664;     1.42016; 99.92851;     -0.12176;1.00000
253.08600; 42.78700;     1.42919; 99.89744;-7.863655e-02;1.00000
254.08600; 42.98783;     1.43796; 99.91472;-3.970712e-02;1.00000
255.08600; 43.18863;     1.44652; 99.87313; 1.856271e-03;1.00000
256.08600; 43.38880;     1.45387; 99.92251;-1.163174e-02;1.00000
257.08600; 43.58859;     1.46206; 99.89578;-8.132558e-02;1.00000
258.08600; 43.78862;     1.46977; 99.85396;-7.366866e-02;1.00000
259.08600; 43.98849;     1.47870; 99.85993;-3.307139e-02;1.00000
260.08600; 44.18832;     1.48560; 99.86269;-5.237768e-02;1.00000
261.08600; 44.38859;     1.49507; 99.84065;-8.874587e-02;1.00000
262.08600; 44.58891;     1.50348; 99.82083;     -0.11159;1.00000
263.08600; 44.78942;     1.51182; 99.79905;     -0.12887;1.00000
264.08600; 44.98987;     1.52024; 99.76020;-9.079116e-02;1.00000
265.08600; 45.19030;     1.52854; 99.74327;-2.040007e-03;1.00000
266.08600; 45.39057;     1.53722; 99.78599;-3.685329e-03;1.00000
267.08600; 45.59036;     1.54573; 99.77059;-9.863477e-02;1.00000
268.08600; 45.79073;     1.55396; 99.72285;     -0.14911;1.00000
269.08600; 45.99155;     1.56326; 99.69237;     -0.13359;1.00000
270.08600; 46.19207;     1.57351; 99.68012;     -0.12359;1.00000
271.08600; 46.39257;     1.58174; 99.63972;     -0.10921;1.00000
272.08600; 46.59277;     1.59110; 99.63240;     -0.10140;1.00000
273.08600; 46.79306;     1.60056; 99.62176;     -0.14106;1.00000
274.08600; 46.99343;     1.61013; 99.56017;     -0.15499;1.00000
275.08600; 47.19411;     1.61981; 99.54325;     -0.13926;1.00000
276.08600; 47.39464;     1.62878; 99.53072;     -0.17607;1.00000
277.08600; 47.59465;     1.63882; 99.46175;     -0.16403;1.00000
278.08600; 47.79534;     1.64950; 99.43181;-6.919176e-02;1.00000
279.08600; 47.99569;     1.65910; 99.45998;-5.835030e-02;1.00000
280.08600; 48.19592;     1.66854; 99.45293;     -0.14774;1.00000
281.08600; 48.39670;     1.67884; 99.37616;     -0.19929;1.00000
282.08600; 48.59705;     1.68904; 99.34838;     -0.21422;1.00000
283.08600; 48.79740;     1.69948; 99.32348;     -0.26874;1.00000
284.08600; 48.99829;     1.70968; 99.21419;     -0.23917;1.00000
285.08600; 49.19905;     1.72037; 99.18880;     -0.11563;1.00000
286.08600; 49.39956;     1.73139; 99.21132;     -0.11777;1.00000
287.08600; 49.60014;     1.74104; 99.17614;     -0.23533;1.00000
288.08600; 49.80065;     1.75258; 99.08654;     -0.28334;1.00000
289.08600; 50.00058;     1.76365; 99.04324;     -0.25714;1.00000
290.08600; 50.20057;     1.77323; 98.99920;     -0.25850;1.00000
291.08600; 50.40061;     1.78415; 98.94841;     -0.30519;1.00000
292.08600; 50.60065;     1.79454; 98.87216;     -0.33431;1.00000
293.08600; 50.80103;     1.80499; 98.80447;     -0.31301;1.00000
294.08600; 51.00201;     1.81709; 98.75376;     -0.31092;1.00000
295.08600; 51.20261;     1.82853; 98.68448;     -0.36665;1.00000
296.08600; 51.40311;     1.83936; 98.61860;     -0.40158;1.00000
297.08600; 51.60350;     1.85068; 98.48975;     -0.34322;1.00000
298.08600; 51.80409;     1.86175; 98.49987;     -0.33971;1.00000
299.08600; 52.00475;     1.87211; 98.38723;     -0.42978;1.00000
300.08600; 52.20498;     1.88354; 98.29327;     -0.48340;1.00000
301.08600; 52.40547;     1.89529; 98.19527;     -0.49735;1.00000
302.08600; 52.60572;     1.90818; 98.07808;     -0.50778;1.00000
303.08600; 52.80530;     1.91940; 98.03458;     -0.62310;1.00000
304.08600; 53.00531;     1.93069; 97.83556;     -0.76384;1.00000
305.08600; 53.20559;     1.94348; 97.68555;     -0.81958;1.00000
306.08600; 53.40485;     1.95528; 97.52873;     -0.86836;1.00000
307.08600; 53.60485;     1.96731; 97.33224;     -0.92296;1.00000
308.08600; 53.80603;     1.97950; 97.15932;     -1.03263;1.00000
309.08600; 54.00705;     1.99121; 96.94813;     -1.22302;1.00000
310.08600; 54.20690;     2.00286; 96.66194;     -1.39289;1.00000
311.08600; 54.40639;     2.01474; 96.36521;     -1.48031;1.00000
312.08600; 54.60638;     2.02708; 96.07264;     -1.55651;1.00000
313.08600; 54.80637;     2.03923; 95.75917;     -1.65464;1.00000
314.08600; 55.00591;     2.05110; 95.40095;     -1.71864;1.00000
315.08600; 55.20596;     2.06469; 95.04828;     -1.72636;1.00000
316.08600; 55.40606;     2.07864; 94.72039;     -1.73886;1.00000
317.08600; 55.60608;     2.09156; 94.36435;     -1.79927;1.00000
318.08600; 55.80598;     2.10685; 94.00895;     -1.89439;1.00000
319.08600; 56.00625;     2.12028; 93.60415;     -1.99204;1.00000
320.08600; 56.20619;     2.13505; 93.20841;     -2.09505;1.00000
321.08600; 56.40560;     2.15050; 92.77909;     -2.18287;1.00000
322.08600; 56.60534;     2.16681; 92.31168;     -2.22580;1.00000
323.08600; 56.80481;     2.18313; 91.90449;     -2.35507;1.00000
324.08600; 57.00453;     2.20046; 91.40530;     -2.56477;1.00000
325.08600; 57.20423;     2.21988; 90.84920;     -2.69857;1.00000
326.08600; 57.40394;     2.23883; 90.32789;     -2.78238;1.00000
327.08600; 57.60439;     2.26061; 89.73823;     -2.87291;1.00000
